Time (s),Force (N),Position (m)
0,-0.194,0.2618
0.01,-0.194,0.2615
0.02,-0.193,0.2613
0.03,-0.193,0.2613
0.04,-0.191,0.2613
0.05,-0.189,0.2613
0.06,-0.189,0.2613
0.07,-0.189,0.2613
0.08,-0.189,0.2613
0.09,-0.193,0.2613
0.1,-0.193,0.2613
0.11,-0.191,0.2613
0.12,-0.193,0.2613
0.13,-0.191,0.2613
0.14,-0.191,0.2613
0.15,-0.191,0.2613
0.16,-0.194,0.2613
0.17,-0.193,0.2613
0.18,-0.193,0.2613
0.19,-0.189,0.2613
0.2,-0.191,0.2613
0.21,-0.191,0.2613
0.22,-0.193,0.2613
0.23,-0.193,0.2613
0.24,-0.193,0.2613
0.25,-0.193,0.2613
0.26,-0.193,0.2613
0.27,-0.193,0.2613
0.28,-0.193,0.2613
0.29,-0.194,0.2613
0.3,-0.191,0.2613
0.31,-0.193,0.2613
0.32,-0.193,0.2613
0.33,-0.191,0.2613
0.34,-0.193,0.2613
0.35,-0.191,0.2613
0.36,-0.191,0.2613
0.37,-0.191,0.2613
0.38,-0.193,0.2613
0.39,-0.193,0.2613
0.4,-0.193,0.2613
0.41,-0.191,0.2613
0.42,-0.191,0.2613
0.43,-0.194,0.2613
0.44,-0.191,0.2613
0.45,-0.193,0.2613
0.46,-0.194,0.2613
0.47,-0.196,0.2613
0.48,-0.194,0.2613
0.49,-0.193,0.2613
0.5,-0.196,0.2613
0.51,-0.193,0.2613
0.52,-0.196,0.2613
0.53,-0.196,0.2613
0.54,-0.194,0.2613
0.55,-0.194,0.2613
0.56,-0.196,0.2613
0.57,-0.194,0.2613
0.58,-0.198,0.2613
0.59,-0.194,0.2613
0.6,-0.194,0.2613
0.61,-0.198,0.2613
0.62,-0.198,0.2613
0.63,-0.196,0.2613
0.64,-0.194,0.2613
0.65,-0.194,0.2613
0.66,-0.196,0.2613
0.67,-0.198,0.2613
0.68,-0.194,0.2613
0.69,-0.198,0.2613
0.7,-0.196,0.2613
0.71,-0.198,0.2613
0.72,-0.196,0.2613
0.73,-0.198,0.2613
0.74,-0.196,0.2613
0.75,-0.2,0.2613
0.76,-0.198,0.2613
0.77,-0.196,0.2613
0.78,-0.196,0.2613
0.79,-0.198,0.2613
0.8,-0.2,0.2613
0.81,-0.198,0.2613
0.82,-0.196,0.2613
0.83,-0.198,0.2613
0.84,-0.2,0.2613
0.85,-0.198,0.2613
0.86,-0.198,0.2613
0.87,-0.2,0.2613
0.88,-0.2,0.2613
0.89,-0.2,0.2613
0.9,-0.196,0.2613
0.91,-0.198,0.2613
0.92,-0.2,0.2613
0.93,-0.2,0.2613
0.94,-0.198,0.2613
0.95,-0.196,0.2613
0.96,-0.2,0.2613
0.97,-0.198,0.2613
0.98,-0.198,0.2613
0.99,-0.2,0.2613
1,-0.198,0.2613
1.01,-0.196,0.2613
1.02,-0.198,0.2613
1.03,-0.196,0.2613
1.04,-0.196,0.2613
1.05,-0.196,0.2613
1.06,-0.198,0.2613
1.07,-0.198,0.2613
1.08,-0.196,0.2613
1.09,-0.198,0.2613
1.1,-0.194,0.2613
1.11,-0.196,0.2613
1.12,-0.198,0.2613
1.13,-0.198,0.2613
1.14,-0.198,0.2613
1.15,-0.2,0.2613
1.16,-0.198,0.2613
1.17,-0.198,0.2613
1.18,-0.196,0.2613
1.19,-0.196,0.2613
1.2,-0.198,0.2613
1.21,-0.196,0.2613
1.22,-0.196,0.2613
1.23,-0.194,0.2613
1.24,-0.198,0.2613
1.25,-0.196,0.2613
1.26,-0.196,0.2613
1.27,-0.198,0.2613
1.28,-0.2,0.2613
1.29,-0.201,0.2613
1.3,-0.196,0.2613
1.31,-0.201,0.2613
1.32,-0.201,0.2613
1.33,-0.201,0.2613
1.34,-0.207,0.2613
1.35,-0.21,0.2613
1.36,-0.219,0.2613
1.37,-0.247,0.2613
1.38,-0.311,0.2613
1.39,-0.397,0.2613
1.4,-0.413,0.2614
1.41,-0.341,0.2618
1.42,-0.268,0.2621
1.43,-0.231,0.2623
1.44,-0.219,0.2626
1.45,-0.215,0.2628
1.46,-0.214,0.263
1.47,-0.217,0.2632
1.48,-0.235,0.2632
1.49,-0.282,0.2632
1.5,-0.366,0.2631
1.51,-0.465,0.2633
1.52,-0.5,0.2633
1.53,-0.46,0.2635
1.54,-0.392,0.2636
1.55,-0.336,0.264
1.56,-0.331,0.264
1.57,-0.36,0.2642
1.58,-0.425,0.2644
1.59,-0.483,0.2644
1.6,-0.512,0.2645
1.61,-0.512,0.2647
1.62,-0.488,0.2649
1.63,-0.467,0.265
1.64,-0.472,0.2652
1.65,-0.512,0.2656
1.66,-0.575,0.2657
1.67,-0.623,0.2659
1.68,-0.652,0.2662
1.69,-0.649,0.2666
1.7,-0.644,0.2669
1.71,-0.644,0.2673
1.72,-0.654,0.2674
1.73,-0.673,0.2678
1.74,-0.699,0.2681
1.75,-0.726,0.2683
1.76,-0.75,0.2687
1.77,-0.766,0.2688
1.78,-0.787,0.2692
1.79,-0.81,0.2693
1.8,-0.841,0.2695
1.81,-0.86,0.2699
1.82,-0.867,0.27
1.83,-0.869,0.2704
1.84,-0.874,0.2705
1.85,-0.888,0.2707
1.86,-0.916,0.2709
1.87,-0.939,0.2711
1.88,-0.967,0.2712
1.89,-0.988,0.2714
1.9,-0.991,0.2716
1.91,-0.998,0.2716
1.92,-1.009,0.2717
1.93,-1.019,0.2719
1.94,-1.037,0.2721
1.95,-1.049,0.2721
1.96,-1.054,0.2723
1.97,-1.058,0.2723
1.98,-1.065,0.2724
1.99,-1.075,0.2724
2,-1.091,0.2726
2.01,-1.1,0.2726
2.02,-1.114,0.2726
2.03,-1.119,0.2728
2.04,-1.133,0.2728
2.05,-1.136,0.273
2.06,-1.142,0.273
2.07,-1.157,0.2731
2.08,-1.166,0.2731
2.09,-1.182,0.2733
2.1,-1.187,0.2735
2.11,-1.199,0.2735
2.12,-1.217,0.2736
2.13,-1.246,0.2738
2.14,-1.266,0.274
2.15,-1.278,0.2742
2.16,-1.266,0.2743
2.17,-1.252,0.2745
2.18,-1.259,0.2747
2.19,-1.29,0.2748
2.2,-1.313,0.275
2.21,-1.327,0.2752
2.22,-1.334,0.2754
2.23,-1.336,0.2755
2.24,-1.348,0.2757
2.25,-1.369,0.2759
2.26,-1.39,0.276
2.27,-1.409,0.2764
2.28,-1.432,0.2766
2.29,-1.447,0.2767
2.3,-1.437,0.2769
2.31,-1.432,0.2771
2.32,-1.442,0.2773
2.33,-1.468,0.2773
2.34,-1.505,0.2774
2.35,-1.523,0.2776
2.36,-1.543,0.2778
2.37,-1.566,0.2779
2.38,-1.587,0.2781
2.39,-1.596,0.2783
2.4,-1.601,0.2785
2.41,-1.606,0.2786
2.42,-1.622,0.2788
2.43,-1.64,0.279
2.44,-1.65,0.2791
2.45,-1.661,0.2793
2.46,-1.682,0.2797
2.47,-1.715,0.2798
2.48,-1.743,0.28
2.49,-1.758,0.2802
2.5,-1.765,0.2805
2.51,-1.764,0.2807
2.52,-1.771,0.2809
2.53,-1.788,0.281
2.54,-1.809,0.2812
2.55,-1.839,0.2814
2.56,-1.865,0.2815
2.57,-1.879,0.2817
2.58,-1.882,0.2819
2.59,-1.889,0.2821
2.6,-1.902,0.2822
2.61,-1.923,0.2824
2.62,-1.951,0.2826
2.63,-1.984,0.2828
2.64,-1.989,0.2829
2.65,-1.979,0.2831
2.66,-1.975,0.2833
2.67,-1.989,0.2835
2.68,-2.008,0.2834
2.69,-2.036,0.2836
2.7,-2.057,0.2838
2.71,-2.068,0.284
2.72,-2.075,0.2841
2.73,-2.083,0.2841
2.74,-2.09,0.2843
2.75,-2.096,0.2845
2.76,-2.108,0.2846
2.77,-2.12,0.2848
2.78,-2.15,0.2848
2.79,-2.171,0.285
2.8,-2.178,0.2852
2.81,-2.178,0.2852
2.82,-2.173,0.2853
2.83,-2.176,0.2855
2.84,-2.199,0.2857
2.85,-2.225,0.2857
2.86,-2.253,0.2858
2.87,-2.277,0.286
2.88,-2.288,0.2862
2.89,-2.284,0.2864
2.9,-2.281,0.2864
2.91,-2.288,0.2865
2.92,-2.307,0.2867
2.93,-2.332,0.2869
2.94,-2.36,0.2871
2.95,-2.377,0.2872
2.96,-2.389,0.2874
2.97,-2.393,0.2876
2.98,-2.4,0.2877
2.99,-2.414,0.2879
3,-2.443,0.2881
3.01,-2.47,0.2883
3.02,-2.478,0.2884
3.03,-2.475,0.2886
3.04,-2.485,0.2889
3.05,-2.503,0.2891
3.06,-2.533,0.2893
3.07,-2.568,0.2895
3.08,-2.583,0.2896
3.09,-2.595,0.2898
3.1,-2.585,0.2901
3.11,-2.583,0.2903
3.12,-2.592,0.2903
3.13,-2.613,0.2905
3.14,-2.644,0.2907
3.15,-2.672,0.2908
3.16,-2.69,0.291
3.17,-2.702,0.291
3.18,-2.713,0.2912
3.19,-2.718,0.2914
3.2,-2.73,0.2915
3.21,-2.739,0.2915
3.22,-2.744,0.2917
3.23,-2.758,0.2917
3.24,-2.77,0.2919
3.25,-2.796,0.292
3.26,-2.826,0.2922
3.27,-2.845,0.2922
3.28,-2.851,0.2924
3.29,-2.851,0.2926
3.3,-2.854,0.2927
3.31,-2.868,0.2929
3.32,-2.893,0.2931
3.33,-2.919,0.2932
3.34,-2.938,0.2934
3.35,-2.943,0.2936
3.36,-2.95,0.2938
3.37,-2.955,0.2939
3.38,-2.976,0.2941
3.39,-3.006,0.2943
3.4,-3.024,0.2944
3.41,-3.034,0.2946
3.42,-3.045,0.2948
3.43,-3.055,0.295
3.44,-3.067,0.295
3.45,-3.078,0.2953
3.46,-3.097,0.2953
3.47,-3.121,0.2957
3.48,-3.146,0.2958
3.49,-3.16,0.2958
3.5,-3.165,0.2963
3.51,-3.163,0.2965
3.52,-3.181,0.2968
3.53,-3.207,0.2975
3.54,-3.226,0.2979
3.55,-3.249,0.2982
3.56,-3.26,0.2984
3.57,-3.274,0.2986
3.58,-3.28,0.2987
3.59,-3.294,0.2989
3.6,-3.312,0.2991
3.61,-3.338,0.2991
3.62,-3.363,0.2993
3.63,-3.363,0.2996
3.64,-3.356,0.2998
3.65,-3.373,0.2998
3.66,-3.415,0.3
3.67,-3.453,0.3001
3.68,-3.485,0.3005
3.69,-3.504,0.3006
3.7,-3.53,0.3008
3.71,-3.555,0.301
3.72,-3.572,0.3013
3.73,-3.583,0.3017
3.74,-3.606,0.3018
3.75,-3.637,0.3022
3.76,-3.67,0.3023
3.77,-3.691,0.3027
3.78,-3.716,0.3029
3.79,-3.744,0.3032
3.8,-3.768,0.3036
3.81,-3.793,0.3037
3.82,-3.815,0.3041
3.83,-3.836,0.3042
3.84,-3.861,0.3046
3.85,-3.887,0.3048
3.86,-3.918,0.3051
3.87,-3.941,0.3053
3.88,-3.966,0.3056
3.89,-3.981,0.3058
3.9,-4.002,0.306
3.91,-4.032,0.3061
3.92,-4.067,0.3063
3.93,-4.09,0.3065
3.94,-4.095,0.3067
3.95,-4.114,0.3068
3.96,-4.161,0.307
3.97,-4.172,0.3072
3.98,-4.2,0.3073
3.99,-4.228,0.3075
4,-4.247,0.3077
4.01,-4.264,0.3079
4.02,-4.278,0.308
4.03,-4.305,0.3082
4.04,-4.338,0.3084
4.05,-4.362,0.3086
4.06,-4.383,0.3087
4.07,-4.395,0.3089
4.08,-4.425,0.3091
4.09,-4.448,0.3092
4.1,-4.46,0.3094
4.11,-4.472,0.3096
4.12,-4.492,0.3097
4.13,-4.507,0.3101
4.14,-4.544,0.3103
4.15,-4.582,0.3104
4.16,-4.605,0.3106
4.17,-4.605,0.3108
4.18,-4.6,0.311
4.19,-4.617,0.3111
4.2,-4.649,0.3113
4.21,-4.672,0.3115
4.22,-4.687,0.3116
4.23,-4.692,0.3118
4.24,-4.71,0.312
4.25,-4.729,0.312
4.26,-4.741,0.3122
4.27,-4.743,0.3124
4.28,-4.741,0.3123
4.29,-4.771,0.3125
4.3,-4.797,0.3125
4.31,-4.796,0.3127
4.32,-4.79,0.3127
4.33,-4.797,0.3129
4.34,-4.839,0.3129
4.35,-4.865,0.313
4.36,-4.879,0.313
4.37,-4.897,0.3132
4.38,-4.93,0.3132
4.39,-4.944,0.3134
4.4,-4.944,0.3135
4.41,-4.942,0.3137
4.42,-4.946,0.3139
4.43,-4.96,0.3141
4.44,-4.993,0.3142
4.45,-5.012,0.3144
4.46,-5.002,0.3146
4.47,-4.997,0.3148
4.48,-5.026,0.3147
4.49,-5.065,0.3149
4.5,-5.086,0.3151
4.51,-5.093,0.3153
4.52,-5.089,0.3154
4.53,-5.079,0.3154
4.54,-5.077,0.3156
4.55,-5.101,0.3158
4.56,-5.142,0.3158
4.57,-5.18,0.316
4.58,-5.194,0.3159
4.59,-5.185,0.3161
4.6,-5.171,0.3163
4.61,-5.18,0.3163
4.62,-5.182,0.3165
4.63,-5.204,0.3165
4.64,-5.239,0.3167
4.65,-5.269,0.3166
4.66,-5.304,0.3168
4.67,-5.306,0.317
4.68,-5.306,0.3172
4.69,-5.323,0.3173
4.7,-5.33,0.3173
4.71,-5.323,0.3175
4.72,-5.343,0.3177
4.73,-5.372,0.3178
4.74,-5.407,0.318
4.75,-5.442,0.3182
4.76,-5.449,0.3184
4.77,-5.449,0.3185
4.78,-5.465,0.3187
4.79,-5.475,0.3189
4.8,-5.486,0.319
4.81,-5.5,0.3192
4.82,-5.509,0.3194
4.83,-5.54,0.3196
4.84,-5.582,0.3197
4.85,-5.603,0.3199
4.86,-5.605,0.3201
4.87,-5.596,0.3203
4.88,-5.599,0.3202
4.89,-5.617,0.3204
4.9,-5.638,0.3206
4.91,-5.65,0.3206
4.92,-5.669,0.3208
4.93,-5.678,0.3208
4.94,-5.676,0.321
4.95,-5.69,0.321
4.96,-5.722,0.321
4.97,-5.737,0.3209
4.98,-5.725,0.3211
4.99,-5.706,0.3211
5,-5.715,0.3211
5.01,-5.743,0.3211
5.02,-5.769,0.3213
5.03,-5.781,0.3213
5.04,-5.781,0.3213
5.05,-5.781,0.3213
5.06,-5.776,0.3215
5.07,-5.785,0.3215
5.08,-5.811,0.3216
5.09,-5.855,0.3216
5.1,-5.886,0.3216
5.11,-5.872,0.3218
5.12,-5.855,0.322
5.13,-5.87,0.322
5.14,-5.91,0.3222
5.15,-5.942,0.3221
5.16,-5.963,0.3223
5.17,-5.972,0.3225
5.18,-5.982,0.3225
5.19,-5.979,0.3227
5.2,-5.979,0.3228
5.21,-5.991,0.3228
5.22,-6.019,0.323
5.23,-6.038,0.323
5.24,-6.042,0.323
5.25,-6.043,0.3232
5.26,-6.064,0.3232
5.27,-6.087,0.3234
5.28,-6.111,0.3234
5.29,-6.108,0.3233
5.3,-6.104,0.3235
5.31,-6.11,0.3235
5.32,-6.12,0.3237
5.33,-6.141,0.3237
5.34,-6.173,0.3237
5.35,-6.208,0.3239
5.36,-6.234,0.3239
5.37,-6.236,0.324
5.38,-6.216,0.324
5.39,-6.213,0.3242
5.4,-6.237,0.3242
5.41,-6.272,0.3244
5.42,-6.291,0.3244
5.43,-6.297,0.3245
5.44,-6.291,0.3247
5.45,-6.27,0.3247
5.46,-6.262,0.3249
5.47,-6.298,0.3249
5.48,-6.342,0.3249
5.49,-6.374,0.3251
5.5,-6.37,0.3251
5.51,-6.361,0.3253
5.52,-6.375,0.3253
5.53,-6.403,0.3252
5.54,-6.435,0.3254
5.55,-6.442,0.3254
5.56,-6.442,0.3256
5.57,-6.468,0.3258
5.58,-6.505,0.3258
5.59,-6.529,0.3259
5.6,-6.524,0.3261
5.61,-6.519,0.3263
5.62,-6.538,0.3265
5.63,-6.578,0.3264
5.64,-6.622,0.3266
5.65,-6.63,0.3268
5.66,-6.629,0.327
5.67,-6.646,0.3271
5.68,-6.669,0.3273
5.69,-6.679,0.3273
5.7,-6.679,0.3275
5.71,-6.681,0.3277
5.72,-6.693,0.3276
5.73,-6.709,0.3278
5.74,-6.737,0.3278
5.75,-6.762,0.328
5.76,-6.763,0.328
5.77,-6.744,0.328
5.78,-6.707,0.3282
5.79,-6.699,0.3282
5.8,-6.728,0.3282
5.81,-6.762,0.3282
5.82,-6.772,0.3282
5.83,-6.772,0.3282
5.84,-6.767,0.3282
5.85,-6.779,0.3282
5.86,-6.784,0.3283
5.87,-6.784,0.3283
5.88,-6.791,0.3283
5.89,-6.807,0.3283
5.9,-6.823,0.3283
5.91,-6.835,0.3283
5.92,-6.838,0.3283
5.93,-6.821,0.3285
5.94,-6.803,0.3285
5.95,-6.817,0.3285
5.96,-6.847,0.3285
5.97,-6.872,0.3285
5.98,-6.886,0.3287
5.99,-6.889,0.3287
6,-6.875,0.3287
6.01,-6.866,0.3289
6.02,-6.861,0.3289
6.03,-6.861,0.3288
6.04,-6.88,0.329
6.05,-6.908,0.329
6.06,-6.945,0.329
6.07,-6.961,0.3292
6.08,-6.938,0.3292
6.09,-6.914,0.3294
6.1,-6.929,0.3294
6.11,-6.975,0.3294
6.12,-6.992,0.3296
6.13,-6.975,0.3296
6.14,-6.942,0.3295
6.15,-6.945,0.3297
6.16,-7.01,0.3297
6.17,-7.067,0.3297
6.18,-7.074,0.3297
6.19,-7.022,0.3297
6.2,-6.961,0.3297
6.21,-6.947,0.3297
6.22,-6.976,0.3297
6.23,-6.994,0.3297
6.24,-7.013,0.3297
6.25,-7.052,0.3299
6.26,-7.099,0.3299
6.27,-7.108,0.3299
6.28,-7.088,0.3299
6.29,-7.066,0.3299
6.3,-7.069,0.3301
6.31,-7.121,0.3301
6.32,-7.158,0.3301
6.33,-7.148,0.3301
6.34,-7.106,0.3302
6.35,-7.078,0.3302
6.36,-7.108,0.3302
6.37,-7.141,0.3302
6.38,-7.13,0.3304
6.39,-7.128,0.3304
6.4,-7.142,0.3304
6.41,-7.176,0.3306
6.42,-7.186,0.3306
6.43,-7.163,0.3306
6.44,-7.132,0.3308
6.45,-7.125,0.3308
6.46,-7.165,0.3308
6.47,-7.204,0.3307
6.48,-7.223,0.3309
6.49,-7.225,0.3309
6.5,-7.225,0.3309
6.51,-7.221,0.3311
6.52,-7.216,0.3311
6.53,-7.223,0.3311
6.54,-7.221,0.3313
6.55,-7.218,0.3313
6.56,-7.239,0.3313
6.57,-7.277,0.3313
6.58,-7.3,0.3314
6.59,-7.303,0.3314
6.6,-7.277,0.3314
6.61,-7.237,0.3316
6.62,-7.235,0.3316
6.63,-7.282,0.3316
6.64,-7.349,0.3316
6.65,-7.377,0.3316
6.66,-7.356,0.3318
6.67,-7.308,0.3318
6.68,-7.289,0.3318
6.69,-7.308,0.332
6.7,-7.356,0.332
6.71,-7.405,0.332
6.72,-7.419,0.332
6.73,-7.405,0.3319
6.74,-7.391,0.3321
6.75,-7.387,0.3321
6.76,-7.401,0.3323
6.77,-7.434,0.3323
6.78,-7.447,0.3325
6.79,-7.434,0.3325
6.8,-7.426,0.3326
6.81,-7.445,0.3328
6.82,-7.48,0.3328
6.83,-7.502,0.333
6.84,-7.501,0.333
6.85,-7.473,0.3332
6.86,-7.466,0.3332
6.87,-7.49,0.3332
6.88,-7.523,0.3331
6.89,-7.537,0.3333
6.9,-7.522,0.3333
6.91,-7.504,0.3333
6.92,-7.499,0.3333
6.93,-7.513,0.3333
6.94,-7.525,0.3333
6.95,-7.523,0.3335
6.96,-7.511,0.3335
6.97,-7.494,0.3335
6.98,-7.494,0.3335
6.99,-7.52,0.3335
7,-7.539,0.3335
7.01,-7.558,0.3337
7.02,-7.579,0.3335
7.03,-7.585,0.3335
7.04,-7.576,0.3337
7.05,-7.555,0.3337
7.06,-7.53,0.3339
7.07,-7.52,0.3339
7.08,-7.537,0.3339
7.09,-7.557,0.3339
7.1,-7.557,0.3339
7.11,-7.551,0.3339
7.12,-7.543,0.3339
7.13,-7.532,0.3339
7.14,-7.504,0.3339
7.15,-7.461,0.3339
7.16,-7.417,0.3339
7.17,-7.398,0.3339
7.18,-7.392,0.3339
7.19,-7.403,0.3339
7.2,-7.412,0.3339
7.21,-7.419,0.3339
7.22,-7.405,0.3339
7.23,-7.371,0.3339
7.24,-7.338,0.3339
7.25,-7.319,0.3339
7.26,-7.312,0.3337
7.27,-7.312,0.3337
7.28,-7.3,0.3337
7.29,-7.275,0.3337
7.3,-7.251,0.3337
7.31,-7.219,0.3337
7.32,-7.205,0.3335
7.33,-7.216,0.3335
7.34,-7.223,0.3333
7.35,-7.19,0.3334
7.36,-7.13,0.3332
7.37,-7.099,0.3332
7.38,-7.104,0.333
7.39,-7.125,0.3328
7.4,-7.109,0.3328
7.41,-7.064,0.3326
7.42,-7.022,0.3327
7.43,-6.987,0.3325
7.44,-6.983,0.3325
7.45,-6.985,0.3323
7.46,-6.969,0.3323
7.47,-6.943,0.3321
7.48,-6.936,0.3321
7.49,-6.931,0.332
7.5,-6.924,0.332
7.51,-6.921,0.3318
7.52,-6.921,0.3318
7.53,-6.91,0.3316
7.54,-6.882,0.3316
7.55,-6.844,0.3316
7.56,-6.83,0.3316
7.57,-6.838,0.3315
7.58,-6.852,0.3313
7.59,-6.847,0.3313
7.6,-6.823,0.3313
7.61,-6.803,0.3311
7.62,-6.788,0.3311
7.63,-6.769,0.3309
7.64,-6.762,0.3309
7.65,-6.763,0.3309
7.66,-6.767,0.3308
7.67,-6.777,0.3306
7.68,-6.767,0.3304
7.69,-6.742,0.3304
7.7,-6.714,0.3302
7.71,-6.72,0.3302
7.72,-6.739,0.3303
7.73,-6.755,0.3301
7.74,-6.734,0.3301
7.75,-6.721,0.3301
7.76,-6.695,0.3299
7.77,-6.692,0.3299
7.78,-6.686,0.3299
7.79,-6.699,0.3297
7.8,-6.699,0.3297
7.81,-6.688,0.3296
7.82,-6.648,0.3296
7.83,-6.629,0.3294
7.84,-6.629,0.3292
7.85,-6.634,0.3292
7.86,-6.637,0.3291
7.87,-6.608,0.3289
7.88,-6.595,0.3287
7.89,-6.597,0.3287
7.9,-6.59,0.3285
7.91,-6.59,0.3283
7.92,-6.555,0.3284
7.93,-6.55,0.3282
7.94,-6.522,0.328
7.95,-6.524,0.3278
7.96,-6.51,0.3277
7.97,-6.515,0.3275
7.98,-6.485,0.3273
7.99,-6.482,0.3273
8,-6.456,0.3272
8.01,-6.466,0.327
8.02,-6.443,0.3268
8.03,-6.429,0.3266
8.04,-6.426,0.3265
8.05,-6.414,0.3263
8.06,-6.403,0.3261
8.07,-6.393,0.3259
8.08,-6.395,0.326
8.09,-6.419,0.3258
8.1,-6.384,0.3258
8.11,-6.358,0.3256
8.12,-6.346,0.3256
8.13,-6.339,0.3254
8.14,-6.346,0.3253
8.15,-6.339,0.3253
8.16,-6.335,0.3253
8.17,-6.328,0.3251
8.18,-6.33,0.3251
8.19,-6.325,0.3249
8.2,-6.326,0.3249
8.21,-6.318,0.3247
8.22,-6.304,0.3247
8.23,-6.277,0.3248
8.24,-6.276,0.3246
8.25,-6.298,0.3246
8.26,-6.288,0.3246
8.27,-6.284,0.3244
8.28,-6.263,0.3244
8.29,-6.248,0.3244
8.3,-6.234,0.3242
8.31,-6.229,0.3242
8.32,-6.23,0.324
8.33,-6.244,0.3241
8.34,-6.243,0.3239
8.35,-6.229,0.3237
8.36,-6.194,0.3237
8.37,-6.187,0.3235
8.38,-6.183,0.3235
8.39,-6.178,0.3234
8.4,-6.174,0.3232
8.41,-6.157,0.323
8.42,-6.148,0.323
8.43,-6.146,0.3229
8.44,-6.148,0.3227
8.45,-6.15,0.3227
8.46,-6.134,0.3225
8.47,-6.101,0.3223
8.48,-6.075,0.3223
8.49,-6.073,0.3222
8.5,-6.08,0.322
8.51,-6.096,0.3218
8.52,-6.078,0.3218
8.53,-6.071,0.3217
8.54,-6.043,0.3215
8.55,-6.024,0.3215
8.56,-6.012,0.3213
8.57,-5.991,0.3211
8.58,-5.97,0.321
8.59,-5.963,0.3208
8.6,-5.954,0.3208
8.61,-5.942,0.3206
8.62,-5.951,0.3205
8.63,-5.935,0.3203
8.64,-5.924,0.3201
8.65,-5.891,0.3199
8.66,-5.874,0.3198
8.67,-5.853,0.3196
8.68,-5.855,0.3194
8.69,-5.841,0.3192
8.7,-5.832,0.3191
8.71,-5.827,0.3189
8.72,-5.799,0.3186
8.73,-5.778,0.3184
8.74,-5.767,0.3182
8.75,-5.779,0.318
8.76,-5.788,0.3179
8.77,-5.781,0.3177
8.78,-5.744,0.3177
8.79,-5.734,0.3175
8.8,-5.734,0.3173
8.81,-5.741,0.3174
8.82,-5.736,0.3172
8.83,-5.732,0.3172
8.84,-5.715,0.317
8.85,-5.703,0.317
8.86,-5.703,0.317
8.87,-5.689,0.3168
8.88,-5.69,0.3168
8.89,-5.682,0.3168
8.9,-5.682,0.3168
8.91,-5.676,0.3168
8.92,-5.675,0.3167
8.93,-5.673,0.3167
8.94,-5.673,0.3167
8.95,-5.673,0.3167
8.96,-5.659,0.3167
8.97,-5.648,0.3167
8.98,-5.645,0.3167
8.99,-5.654,0.3165
9,-5.652,0.3165
9.01,-5.627,0.3165
9.02,-5.61,0.3165
9.03,-5.61,0.3163
9.04,-5.62,0.3163
9.05,-5.619,0.3161
9.06,-5.598,0.3162
9.07,-5.575,0.316
9.08,-5.575,0.316
9.09,-5.584,0.3158
9.1,-5.584,0.3156
9.11,-5.571,0.3156
9.12,-5.554,0.3155
9.13,-5.531,0.3153
9.14,-5.526,0.3153
9.15,-5.521,0.3151
9.16,-5.523,0.3149
9.17,-5.514,0.3148
9.18,-5.507,0.3148
9.19,-5.498,0.3146
9.2,-5.488,0.3144
9.21,-5.481,0.3142
9.22,-5.454,0.3143
9.23,-5.437,0.3141
9.24,-5.432,0.3139
9.25,-5.44,0.3137
9.26,-5.449,0.3136
9.27,-5.437,0.3136
9.28,-5.414,0.3134
9.29,-5.397,0.3132
9.3,-5.395,0.313
9.31,-5.393,0.3131
9.32,-5.393,0.3129
9.33,-5.364,0.3127
9.34,-5.35,0.3127
9.35,-5.351,0.3125
9.36,-5.341,0.3125
9.37,-5.322,0.3124
9.38,-5.306,0.3122
9.39,-5.299,0.3122
9.4,-5.29,0.312
9.41,-5.29,0.3118
9.42,-5.294,0.3119
9.43,-5.285,0.3117
9.44,-5.274,0.3115
9.45,-5.264,0.3115
9.46,-5.26,0.3113
9.47,-5.255,0.3113
9.48,-5.238,0.3112
9.49,-5.218,0.311
9.5,-5.21,0.311
9.51,-5.218,0.3108
9.52,-5.217,0.3108
9.53,-5.218,0.3106
9.54,-5.204,0.3106
9.55,-5.187,0.3105
9.56,-5.164,0.3105
9.57,-5.159,0.3103
9.58,-5.159,0.3103
9.59,-5.145,0.3101
9.6,-5.14,0.3101
9.61,-5.143,0.3099
9.62,-5.143,0.31
9.63,-5.131,0.3098
9.64,-5.122,0.3098
9.65,-5.105,0.3096
9.66,-5.079,0.3096
9.67,-5.08,0.3094
9.68,-5.066,0.3093
9.69,-5.059,0.3093
9.7,-5.066,0.3091
9.71,-5.058,0.3089
9.72,-5.038,0.3089
9.73,-5.04,0.3088
9.74,-5.024,0.3086
9.75,-5.018,0.3086
9.76,-5.014,0.3084
9.77,-5.011,0.3082
9.78,-5.009,0.3081
9.79,-5.007,0.3081
9.8,-4.991,0.3079
9.81,-4.956,0.3077
9.82,-4.942,0.3077
9.83,-4.944,0.3076
9.84,-4.948,0.3074
9.85,-4.953,0.3072
9.86,-4.946,0.3072
9.87,-4.93,0.307
9.88,-4.916,0.307
9.89,-4.9,0.3068
9.9,-4.888,0.3069
9.91,-4.89,0.3067
9.92,-4.883,0.3067
9.93,-4.858,0.3065
9.94,-4.839,0.3063
9.95,-4.827,0.3063
9.96,-4.82,0.3062
9.97,-4.836,0.306
9.98,-4.827,0.306
9.99,-4.801,0.3058
10,-4.782,0.3057
10.01,-4.769,0.3055
10.02,-4.766,0.3053
10.03,-4.757,0.3051
10.04,-4.74,0.3051
10.05,-4.736,0.305
10.06,-4.719,0.3048
10.07,-4.696,0.3046
10.08,-4.68,0.3045
10.09,-4.675,0.3043
10.1,-4.661,0.3041
10.11,-4.654,0.3039
10.12,-4.649,0.3038
10.13,-4.638,0.3036
10.14,-4.626,0.3034
10.15,-4.616,0.3033
10.16,-4.617,0.3031
10.17,-4.609,0.3023
10.18,-4.584,0.3028
10.19,-4.57,0.3022
10.2,-4.556,0.3025
10.21,-4.549,0.3025
10.22,-4.544,0.3026
10.23,-4.539,0.3024
10.24,-4.546,0.3024
10.25,-4.546,0.3024
10.26,-4.537,0.3022
10.27,-4.521,0.3022
10.28,-4.511,0.3022
10.29,-4.495,0.302
10.3,-4.481,0.302
10.31,-4.479,0.302
10.32,-4.483,0.3019
10.33,-4.485,0.3019
10.34,-4.469,0.3019
10.35,-4.451,0.3017
10.36,-4.443,0.3017
10.37,-4.444,0.3017
10.38,-4.446,0.3015
10.39,-4.446,0.3015
10.4,-4.437,0.3013
10.41,-4.423,0.3014
10.42,-4.409,0.3012
10.43,-4.401,0.3012
10.44,-4.39,0.301
10.45,-4.38,0.301
10.46,-4.371,0.3008
10.47,-4.373,0.3007
10.48,-4.366,0.3007
10.49,-4.355,0.3005
10.5,-4.338,0.3003
10.51,-4.325,0.3002
10.52,-4.31,0.3
10.53,-4.292,0.2998
10.54,-4.277,0.2996
10.55,-4.268,0.2996
10.56,-4.264,0.2995
10.57,-4.252,0.2993
10.58,-4.238,0.2991
10.59,-4.217,0.299
10.6,-4.198,0.2988
10.61,-4.186,0.2986
10.62,-4.177,0.2983
10.63,-4.17,0.2982
10.64,-4.152,0.297
10.65,-4.132,0.2974
10.66,-4.119,0.2969
10.67,-4.112,0.2964
10.68,-4.116,0.296
10.69,-4.105,0.2959
10.7,-4.088,0.2957
10.71,-4.065,0.2955
10.72,-4.049,0.2953
10.73,-4.044,0.2952
10.74,-4.044,0.295
10.75,-4.041,0.295
10.76,-4.028,0.2948
10.77,-4.011,0.2948
10.78,-3.995,0.2946
10.79,-3.988,0.2947
10.8,-3.995,0.2945
10.81,-3.99,0.2945
10.82,-3.971,0.2945
10.83,-3.953,0.2945
10.84,-3.946,0.2945
10.85,-3.945,0.2943
10.86,-3.948,0.2943
10.87,-3.953,0.2941
10.88,-3.95,0.2941
10.89,-3.931,0.2941
10.9,-3.913,0.2939
10.91,-3.906,0.2939
10.92,-3.904,0.294
10.93,-3.899,0.2938
10.94,-3.892,0.2938
10.95,-3.873,0.2936
10.96,-3.855,0.2936
10.97,-3.857,0.2934
10.98,-3.866,0.2934
10.99,-3.873,0.2933
11,-3.868,0.2933
11.01,-3.852,0.2931
11.02,-3.829,0.2931
11.03,-3.819,0.2929
11.04,-3.817,0.2929
11.05,-3.824,0.2927
11.06,-3.824,0.2928
11.07,-3.817,0.2926
11.08,-3.8,0.2924
11.09,-3.779,0.2924
11.1,-3.766,0.2924
11.11,-3.751,0.2922
11.12,-3.749,0.2922
11.13,-3.74,0.2921
11.14,-3.733,0.2919
11.15,-3.716,0.2919
11.16,-3.696,0.2917
11.17,-3.691,0.2916
11.18,-3.693,0.2914
11.19,-3.696,0.2914
11.2,-3.688,0.2912
11.21,-3.677,0.291
11.22,-3.658,0.291
11.23,-3.639,0.2909
11.24,-3.626,0.2907
11.25,-3.626,0.2907
11.26,-3.625,0.2905
11.27,-3.614,0.2903
11.28,-3.592,0.2904
11.29,-3.581,0.2902
11.3,-3.574,0.2902
11.31,-3.567,0.29
11.32,-3.551,0.2898
11.33,-3.55,0.2898
11.34,-3.548,0.2896
11.35,-3.55,0.2896
11.36,-3.55,0.2897
11.37,-3.544,0.2895
11.38,-3.518,0.2895
11.39,-3.501,0.2895
11.4,-3.492,0.2895
11.41,-3.495,0.2893
11.42,-3.506,0.2893
11.43,-3.504,0.2893
11.44,-3.501,0.2893
11.45,-3.485,0.2893
11.46,-3.478,0.2891
11.47,-3.478,0.2891
11.48,-3.478,0.2891
11.49,-3.478,0.2891
11.5,-3.471,0.2891
11.51,-3.462,0.2891
11.52,-3.453,0.2891
11.53,-3.445,0.2891
11.54,-3.44,0.2891
11.55,-3.438,0.289
11.56,-3.436,0.289
11.57,-3.434,0.289
11.58,-3.436,0.289
11.59,-3.436,0.2888
11.6,-3.424,0.2888
11.61,-3.412,0.2888
11.62,-3.406,0.2888
11.63,-3.401,0.2886
11.64,-3.392,0.2886
11.65,-3.384,0.2886
11.66,-3.385,0.2884
11.67,-3.382,0.2884
11.68,-3.385,0.2885
11.69,-3.387,0.2883
11.7,-3.382,0.2883
11.71,-3.371,0.2883
11.72,-3.354,0.2881
11.73,-3.343,0.2881
11.74,-3.329,0.2881
11.75,-3.326,0.2879
11.76,-3.319,0.2879
11.77,-3.317,0.2878
11.78,-3.314,0.2878
11.79,-3.312,0.2878
11.8,-3.294,0.2876
11.81,-3.282,0.2876
11.82,-3.277,0.2874
11.83,-3.277,0.2874
11.84,-3.272,0.2874
11.85,-3.268,0.2872
11.86,-3.258,0.2873
11.87,-3.239,0.2871
11.88,-3.221,0.2871
11.89,-3.211,0.2869
11.9,-3.207,0.2869
11.91,-3.212,0.2867
11.92,-3.211,0.2867
11.93,-3.197,0.2866
11.94,-3.188,0.2866
11.95,-3.179,0.2866
11.96,-3.172,0.2864
11.97,-3.163,0.2864
11.98,-3.16,0.2862
11.99,-3.144,0.2862
12,-3.135,0.286
12.01,-3.125,0.2861
12.02,-3.114,0.2859
12.03,-3.106,0.2859
12.04,-3.102,0.2857
12.05,-3.095,0.2857
12.06,-3.087,0.2857
12.07,-3.071,0.2855
12.08,-3.06,0.2855
12.09,-3.05,0.2853
12.1,-3.052,0.2853
12.11,-3.052,0.2854
12.12,-3.041,0.2852
12.13,-3.024,0.2852
12.14,-3.01,0.2852
12.15,-3.003,0.285
12.16,-3.004,0.285
12.17,-3.001,0.285
12.18,-2.992,0.285
12.19,-2.976,0.2848
12.2,-2.968,0.2848
12.21,-2.962,0.2848
12.22,-2.966,0.2848
12.23,-2.954,0.2847
12.24,-2.943,0.2847
12.25,-2.931,0.2847
12.26,-2.926,0.2845
12.27,-2.922,0.2845
12.28,-2.919,0.2843
12.29,-2.908,0.2843
12.3,-2.882,0.2841
12.31,-2.859,0.2842
12.32,-2.851,0.284
12.33,-2.847,0.284
12.34,-2.845,0.2838
12.35,-2.84,0.2838
12.36,-2.823,0.2836
12.37,-2.805,0.2835
12.38,-2.789,0.2835
12.39,-2.772,0.2833
12.4,-2.765,0.2831
12.41,-2.758,0.283
12.42,-2.742,0.2828
12.43,-2.725,0.2828
12.44,-2.704,0.2826
12.45,-2.686,0.2824
12.46,-2.665,0.2823
12.47,-2.648,0.2821
12.48,-2.629,0.2819
12.49,-2.632,0.2818
12.5,-2.623,0.2816
12.51,-2.602,0.2816
12.52,-2.58,0.2814
12.53,-2.561,0.2812
12.54,-2.541,0.2811
12.55,-2.527,0.2809
12.56,-2.51,0.2807
12.57,-2.485,0.2807
12.58,-2.468,0.2805
12.59,-2.461,0.2804
12.6,-2.457,0.2802
12.61,-2.449,0.2802
12.62,-2.44,0.28
12.63,-2.424,0.28
12.64,-2.403,0.2798
12.65,-2.382,0.2799
12.66,-2.374,0.2797
12.67,-2.367,0.2797
12.68,-2.365,0.2795
12.69,-2.361,0.2795
12.7,-2.349,0.2795
12.71,-2.339,0.2793
12.72,-2.33,0.2793
12.73,-2.325,0.2793
12.74,-2.316,0.2792
12.75,-2.309,0.2792
12.76,-2.302,0.2792
12.77,-2.283,0.2792
12.78,-2.274,0.2792
12.79,-2.262,0.2792
12.8,-2.26,0.279
12.81,-2.262,0.279
12.82,-2.265,0.279
12.83,-2.256,0.279
12.84,-2.237,0.2788
12.85,-2.218,0.2788
12.86,-2.202,0.2788
12.87,-2.202,0.2788
12.88,-2.208,0.2786
12.89,-2.201,0.2787
12.9,-2.192,0.2785
12.91,-2.173,0.2785
12.92,-2.164,0.2783
12.93,-2.155,0.2781
12.94,-2.145,0.2781
12.95,-2.136,0.278
12.96,-2.129,0.2778
12.97,-2.12,0.2778
12.98,-2.113,0.2776
12.99,-2.106,0.2774
13,-2.097,0.2774
13.01,-2.082,0.2773
13.02,-2.062,0.2773
13.03,-2.045,0.2771
13.04,-2.035,0.2769
13.05,-2.028,0.2769
13.06,-2.021,0.2767
13.07,-2.017,0.2768
13.08,-2.019,0.2766
13.09,-2.01,0.2766
13.1,-1.991,0.2764
13.11,-1.965,0.2764
13.12,-1.945,0.2764
13.13,-1.94,0.2762
13.14,-1.94,0.2762
13.15,-1.938,0.2762
13.16,-1.924,0.2761
13.17,-1.905,0.2761
13.18,-1.891,0.2761
13.19,-1.884,0.2759
13.2,-1.882,0.2759
13.21,-1.876,0.2757
13.22,-1.858,0.2757
13.23,-1.839,0.2757
13.24,-1.823,0.2755
13.25,-1.809,0.2756
13.26,-1.79,0.2754
13.27,-1.783,0.2752
13.28,-1.771,0.2752
13.29,-1.757,0.275
13.3,-1.741,0.2749
13.31,-1.722,0.2749
13.32,-1.709,0.2747
13.33,-1.704,0.2745
13.34,-1.687,0.2744
13.35,-1.671,0.2742
13.36,-1.655,0.274
13.37,-1.64,0.2738
13.38,-1.627,0.2737
13.39,-1.606,0.2737
13.4,-1.587,0.2735
13.41,-1.577,0.2733
13.42,-1.571,0.2731
13.43,-1.556,0.273
13.44,-1.529,0.2728
13.45,-1.496,0.2728
13.46,-1.467,0.2726
13.47,-1.454,0.2724
13.48,-1.467,0.2725
13.49,-1.467,0.2723
13.5,-1.451,0.2721
13.51,-1.421,0.2721
13.52,-1.388,0.2719
13.53,-1.369,0.2719
13.54,-1.37,0.2718
13.55,-1.374,0.2718
13.56,-1.365,0.2716
13.57,-1.353,0.2716
13.58,-1.332,0.2714
13.59,-1.318,0.2714
13.6,-1.306,0.2712
13.61,-1.295,0.2712
13.62,-1.276,0.2713
13.63,-1.266,0.2711
13.64,-1.264,0.2711
13.65,-1.26,0.2709
13.66,-1.25,0.2709
13.67,-1.238,0.2707
13.68,-1.224,0.2707
13.69,-1.217,0.2706
13.7,-1.208,0.2706
13.71,-1.203,0.2704
13.72,-1.197,0.2704
13.73,-1.18,0.2702
13.74,-1.159,0.2702
13.75,-1.147,0.27
13.76,-1.14,0.2701
13.77,-1.131,0.2699
13.78,-1.117,0.2697
13.79,-1.098,0.2697
13.8,-1.087,0.2695
13.81,-1.082,0.2695
13.82,-1.077,0.2694
13.83,-1.068,0.2692
13.84,-1.061,0.2692
13.85,-1.049,0.269
13.86,-1.028,0.269
13.87,-1.002,0.2688
13.88,-0.979,0.2687
13.89,-0.972,0.2685
13.9,-0.965,0.2685
13.91,-0.956,0.2683
13.92,-0.942,0.2682
13.93,-0.928,0.268
13.94,-0.904,0.268
13.95,-0.883,0.2678
13.96,-0.871,0.2676
13.97,-0.867,0.2675
13.98,-0.853,0.2673
13.99,-0.832,0.2671
14,-0.82,0.2671
14.01,-0.817,0.267
14.02,-0.82,0.2668
14.03,-0.813,0.2666
14.04,-0.794,0.2666
14.05,-0.776,0.2664
14.06,-0.757,0.2663
14.07,-0.747,0.2663
14.08,-0.743,0.2663
14.09,-0.748,0.2661
14.1,-0.747,0.2661
14.11,-0.736,0.2661
14.12,-0.72,0.2661
14.13,-0.71,0.2661
14.14,-0.706,0.2661
14.15,-0.71,0.2659
14.16,-0.705,0.2659
14.17,-0.696,0.2659
14.18,-0.684,0.2659
14.19,-0.673,0.2659
14.2,-0.661,0.2659
14.21,-0.649,0.2659
14.22,-0.642,0.2657
14.23,-0.638,0.2657
14.24,-0.631,0.2658
14.25,-0.619,0.2656
14.26,-0.603,0.2656
14.27,-0.584,0.2654
14.28,-0.568,0.2652
14.29,-0.556,0.2652
14.3,-0.556,0.2651
14.31,-0.539,0.2649
14.32,-0.525,0.2647
14.33,-0.507,0.2645
14.34,-0.486,0.2644
14.35,-0.467,0.2642
14.36,-0.451,0.264
14.37,-0.436,0.2639
14.38,-0.432,0.2637
14.39,-0.425,0.2635
14.4,-0.408,0.2633
14.41,-0.387,0.2632
14.42,-0.36,0.263
14.43,-0.332,0.2626
14.44,-0.311,0.2627
14.45,-0.294,0.2625
14.46,-0.28,0.2623
14.47,-0.275,0.2621
14.48,-0.273,0.262
14.49,-0.271,0.2618
14.5,-0.263,0.2618
14.51,-0.259,0.2616
14.52,-0.25,0.2616
14.53,-0.24,0.2616
14.54,-0.235,0.2616
14.55,-0.229,0.2614
14.56,-0.226,0.2614
14.57,-0.224,0.2614
14.58,-0.219,0.2616
14.59,-0.219,0.2614
14.6,-0.217,0.2614
14.61,-0.215,0.2614
14.62,-0.214,0.2614
14.63,-0.21,0.2614
14.64,-0.212,0.2614
14.65,-0.208,0.2614
14.66,-0.21,0.2614
14.67,-0.207,0.2614
14.68,-0.208,0.2614
14.69,-0.207,0.2614
14.7,-0.208,0.2614
14.71,-0.205,0.2614
14.72,-0.203,0.2614
14.73,-0.205,0.2614
14.74,-0.203,0.2614
14.75,-0.201,0.2614
14.76,-0.203,0.2614
14.77,-0.201,0.2614
14.78,-0.2,0.2614
14.79,-0.201,0.2614
14.8,-0.201,0.2614
14.81,-0.201,0.2614
14.82,-0.201,0.2614
14.83,-0.201,0.2614
14.84,-0.201,0.2614
14.85,-0.201,0.2614
14.86,-0.2,0.2614
14.87,-0.201,0.2614
14.88,-0.2,0.2614
14.89,-0.2,0.2614
14.9,-0.2,0.2614
14.91,-0.2,0.2614
14.92,-0.2,0.2614
14.93,-0.198,0.2614
14.94,-0.2,0.2614
14.95,-0.196,0.2614
14.96,-0.2,0.2614
14.97,-0.196,0.2614
14.98,-0.198,0.2614
14.99,-0.2,0.2614
15,-0.198,0.2614
15.01,-0.198,0.2614
15.02,-0.2,0.2614
15.03,-0.198,0.2614
15.04,-0.193,0.2614
15.05,-0.196,0.2614
15.06,-0.196,0.2614
15.07,-0.198,0.2614
15.08,-0.194,0.2614
15.09,-0.196,0.2614
15.1,-0.2,0.2614
15.11,-0.194,0.2614
15.12,-0.196,0.2614
15.13,-0.196,0.2614
15.14,-0.196,0.2614
15.15,-0.198,0.2614
15.16,-0.194,0.2614
15.17,-0.194,0.2614
15.18,-0.196,0.2614
15.19,-0.196,0.2614
15.2,-0.196,0.2614
15.21,-0.194,0.2614
15.22,-0.196,0.2614
15.23,-0.194,0.2614
15.24,-0.198,0.2614
15.25,-0.196,0.2614
15.26,-0.194,0.2614
15.27,-0.194,0.2614
15.28,-0.196,0.2614
15.29,-0.194,0.2614
15.3,-0.196,0.2614
15.31,-0.194,0.2614
15.32,-0.193,0.2614
15.33,-0.194,0.2614
15.34,-0.194,0.2614
15.35,-0.198,0.2614
15.36,-0.194,0.2614
15.37,-0.193,0.2614
15.38,-0.196,0.2614
15.39,-0.194,0.2614
15.4,-0.193,0.2614
15.41,-0.193,0.2614
15.42,-0.194,0.2614
15.43,-0.194,0.2614
15.44,-0.193,0.2614
15.45,-0.194,0.2614
15.46,-0.193,0.2614
15.47,-0.198,0.2614
15.48,-0.191,0.2614
15.49,-0.194,0.2614
15.5,-0.193,0.2614
15.51,-0.194,0.2614
15.52,-0.193,0.2614
15.53,-0.194,0.2614
15.54,-0.193,0.2614
15.55,-0.196,0.2614
15.56,-0.191,0.2614
15.57,-0.193,0.2614
15.58,-0.196,0.2614
15.59,-0.194,0.2614
15.6,-0.196,0.2614
15.61,-0.196,0.2614
15.62,-0.194,0.2614
15.63,-0.194,0.2614
15.64,-0.194,0.2614
15.65,-0.194,0.2614
15.66,-0.194,0.2614
15.67,-0.193,0.2614
15.68,-0.194,0.2614
15.69,-0.196,0.2614
15.7,-0.196,0.2614
15.71,-0.196,0.2614
15.72,-0.194,0.2614
15.73,-0.194,0.2614
15.74,-0.194,0.2614
15.75,-0.194,0.2614
15.76,-0.193,0.2614
15.77,-0.194,0.2614
15.78,-0.196,0.2614
15.79,-0.191,0.2614
15.8,-0.194,0.2614
15.81,-0.193,0.2614
15.82,-0.194,0.2614
15.83,-0.196,0.2614
15.84,-0.194,0.2614
15.85,-0.194,0.2614
15.86,-0.194,0.2614
15.87,-0.193,0.2614
15.88,-0.191,0.2614
15.89,-0.194,0.2614
15.9,-0.193,0.2614
15.91,-0.196,0.2614
15.92,-0.193,0.2614
15.93,-0.193,0.2614
15.94,-0.189,0.2614
15.95,-0.191,0.2614
15.96,-0.191,0.2614
15.97,-0.193,0.2614
15.98,-0.193,0.2614
15.99,-0.193,0.2614
16,-0.194,0.2614
16.01,-0.193,0.2614
16.02,-0.193,0.2614
16.03,-0.193,0.2614
16.04,-0.193,0.2614
16.05,-0.194,0.2614
16.06,-0.194,0.2614
16.07,-0.191,0.2614
16.08,-0.193,0.2614
16.09,-0.193,0.2614
16.1,-0.194,0.2614
16.11,-0.191,0.2614
16.12,-0.193,0.2614
16.13,-0.193,0.2614
16.14,-0.193,0.2614
16.15,-0.191,0.2614
16.16,-0.193,0.2614
16.17,-0.193,0.2614
16.18,-0.193,0.2614
16.19,-0.191,0.2614
16.2,-0.193,0.2614
16.21,-0.193,0.2614
16.22,-0.189,0.2614
16.23,-0.193,0.2614
16.24,-0.193,0.2614
16.25,-0.194,0.2614
16.26,-0.191,0.2614
16.27,-0.193,0.2614
16.28,-0.193,0.2614
16.29,-0.189,0.2614
16.3,-0.193,0.2614
16.31,-0.194,0.2614
16.32,-0.194,0.2614
16.33,-0.191,0.2614
16.34,-0.189,0.2614
16.35,-0.189,0.2614
16.36,-0.193,0.2614
16.37,-0.193,0.2614
16.38,-0.191,0.2614
16.39,-0.193,0.2614
16.4,-0.191,0.2614
16.41,-0.193,0.2614
16.42,-0.193,0.2614
16.43,-0.191,0.2614
16.44,-0.194,0.2614
16.45,-0.191,0.2614
16.46,-0.191,0.2614
16.47,-0.189,0.2614
16.48,-0.189,0.2614
16.49,-0.191,0.2614
16.5,-0.194,0.2614
16.51,-0.191,0.2614
16.52,-0.194,0.2614
16.53,-0.193,